AkkuMasterC4
Zeit [sec];Spannung [V];Strom [A];Ladung [mAh]
0.00; 4.505;0.433;0.000
10.00; 4.535;0.433;2.000
20.00; 4.560;0.433;3.000
30.00; 4.580;0.433;4.000
40.00; 4.605;0.433;5.000
50.00; 4.605;0.433;6.000
60.00; 4.630;0.433;7.000
70.00; 4.650;0.433;9.000
80.00; 4.660;0.433;10.000
90.00; 4.680;0.433;11.000
100.00; 4.695;0.433;12.000
110.00; 4.710;0.433;13.000
120.00; 4.725;0.433;14.000
130.00; 4.730;0.433;16.000
140.00; 4.740;0.433;17.000
150.00; 4.755;0.433;18.000
160.00; 4.760;0.433;19.000
170.00; 4.770;0.433;20.000
180.00; 4.785;0.433;21.000
190.00; 4.785;0.433;23.000
200.00; 4.785;0.433;24.000
210.00; 4.810;0.433;25.000
220.00; 4.820;0.433;26.000
230.00; 4.815;0.433;27.000
240.00; 4.835;0.433;28.000
250.00; 4.840;0.433;30.000
260.00; 4.860;0.433;31.000
270.00; 4.830;0.433;32.000
280.00; 4.870;0.433;33.000
290.00; 4.865;0.433;34.000
300.00; 4.865;0.433;36.000
310.00; 4.880;0.433;38.000
320.00; 4.890;0.433;39.000
330.00; 4.890;0.433;40.000
340.00; 4.895;0.433;41.000
350.00; 4.915;0.433;42.000
360.00; 4.905;0.433;43.000
370.00; 4.920;0.433;45.000
380.00; 4.925;0.433;46.000
390.00; 4.920;0.433;47.000
400.00; 4.940;0.433;48.000
410.00; 4.955;0.433;49.000
420.00; 4.955;0.433;50.000
430.00; 4.965;0.433;52.000
440.00; 4.950;0.433;53.000
450.00; 4.955;0.433;54.000
460.00; 4.965;0.433;55.000
470.00; 4.980;0.433;56.000
480.00; 4.980;0.433;57.000
490.00; 4.980;0.433;59.000
500.00; 4.990;0.433;60.000
510.00; 4.995;0.433;61.000
520.00; 4.995;0.433;62.000
530.00; 5.000;0.433;63.000
540.00; 5.010;0.433;64.000
550.00; 5.010;0.433;66.000
560.00; 5.010;0.433;67.000
570.00; 5.010;0.433;68.000
580.00; 5.005;0.433;69.000
590.00; 5.040;0.433;70.000
600.00; 5.045;0.433;72.000
610.00; 5.030;0.433;74.000
620.00; 5.040;0.433;75.000
630.00; 5.060;0.433;76.000
640.00; 5.055;0.433;77.000
650.00; 5.075;0.433;78.000
660.00; 5.055;0.433;79.000
670.00; 5.070;0.433;81.000
680.00; 5.065;0.433;82.000
690.00; 5.080;0.433;83.000
700.00; 5.075;0.433;84.000
710.00; 5.080;0.433;85.000
720.00; 5.085;0.433;86.000
730.00; 5.090;0.433;88.000
740.00; 5.075;0.433;89.000
750.00; 5.105;0.433;90.000
760.00; 5.100;0.433;91.000
770.00; 5.100;0.433;92.000
780.00; 5.105;0.433;93.000
790.00; 5.120;0.433;95.000
800.00; 5.115;0.433;96.000
810.00; 5.115;0.433;97.000
820.00; 5.115;0.433;98.000
830.00; 5.115;0.433;99.000
840.00; 5.120;0.433;100.000
850.00; 5.140;0.433;102.000
860.00; 5.130;0.433;103.000
870.00; 5.130;0.433;104.000
880.00; 5.140;0.433;105.000
890.00; 5.135;0.433;106.000
900.00; 5.135;0.433;108.000
910.00; 5.135;0.433;110.000
920.00; 5.145;0.433;111.000
930.00; 5.155;0.433;112.000
940.00; 5.155;0.433;113.000
950.00; 5.160;0.433;114.000
960.00; 5.160;0.433;115.000
970.00; 5.165;0.433;117.000
980.00; 5.165;0.433;118.000
990.00; 5.175;0.433;119.000
1000.00; 5.180;0.433;120.000
1010.00; 5.180;0.433;121.000
1020.00; 5.180;0.433;122.000
1030.00; 5.180;0.433;124.000
1040.00; 5.165;0.433;125.000
1050.00; 5.180;0.433;126.000
1060.00; 5.190;0.433;127.000
1070.00; 5.180;0.433;128.000
1080.00; 5.190;0.433;129.000
1090.00; 5.195;0.433;131.000
1100.00; 5.205;0.433;132.000
1110.00; 5.195;0.433;133.000
1120.00; 5.205;0.433;134.000
1130.00; 5.195;0.433;135.000
1140.00; 5.205;0.433;136.000
1150.00; 5.210;0.433;138.000
1160.00; 5.190;0.433;139.000
1170.00; 5.210;0.433;140.000
1180.00; 5.210;0.433;141.000
1190.00; 5.210;0.433;142.000
1200.00; 5.220;0.433;144.000
1210.00; 5.235;0.433;146.000
1220.00; 5.215;0.433;147.000
1230.00; 5.225;0.433;148.000
1240.00; 5.215;0.433;149.000
1250.00; 5.220;0.433;150.000
1260.00; 5.230;0.433;151.000
1270.00; 5.220;0.433;153.000
1280.00; 5.240;0.433;154.000
1290.00; 5.225;0.433;155.000
1300.00; 5.240;0.433;156.000
1310.00; 5.240;0.433;157.000
1320.00; 5.240;0.433;158.000
1330.00; 5.240;0.433;160.000
1340.00; 5.255;0.433;161.000
1350.00; 5.250;0.433;162.000
1360.00; 5.250;0.433;163.000
1370.00; 5.250;0.433;164.000
1380.00; 5.245;0.433;165.000
1390.00; 5.255;0.433;167.000
1400.00; 5.265;0.433;168.000
1410.00; 5.255;0.433;169.000
1420.00; 5.260;0.433;170.000
1430.00; 5.265;0.433;171.000
1440.00; 5.250;0.433;172.000
1450.00; 5.250;0.433;174.000
1460.00; 5.255;0.433;175.000
1470.00; 5.265;0.433;176.000
1480.00; 5.250;0.433;177.000
1490.00; 5.265;0.433;178.000
1500.00; 5.270;0.433;180.000
1510.00; 5.265;0.433;182.000
1520.00; 5.270;0.433;183.000
1530.00; 5.285;0.433;184.000
1540.00; 5.270;0.433;185.000
1550.00; 5.275;0.433;186.000
1560.00; 5.280;0.433;187.000
1570.00; 5.285;0.433;189.000
1580.00; 5.280;0.433;190.000
1590.00; 5.295;0.433;191.000
1600.00; 5.285;0.433;192.000
1610.00; 5.295;0.433;193.000
1620.00; 5.295;0.433;194.000
1630.00; 5.290;0.433;196.000
1640.00; 5.285;0.433;197.000
1650.00; 5.295;0.433;198.000
1660.00; 5.295;0.433;199.000
1670.00; 5.310;0.433;200.000
1680.00; 5.300;0.433;201.000
1690.00; 5.295;0.433;203.000
1700.00; 5.295;0.433;204.000
1710.00; 5.285;0.433;205.000
1720.00; 5.300;0.433;206.000
1730.00; 5.305;0.433;207.000
1740.00; 5.295;0.433;208.000
1750.00; 5.290;0.433;210.000
1760.00; 5.310;0.433;211.000
1770.00; 5.300;0.433;212.000
1780.00; 5.295;0.433;213.000
1790.00; 5.315;0.433;214.000
1800.00; 5.315;0.433;216.000
1810.00; 5.320;0.433;218.000
1820.00; 5.315;0.433;219.000
1830.00; 5.315;0.433;220.000
1840.00; 5.315;0.433;221.000
1850.00; 5.315;0.433;222.000
1860.00; 5.310;0.433;223.000
1870.00; 5.320;0.433;225.000
1880.00; 5.325;0.433;226.000
1890.00; 5.320;0.433;227.000
1900.00; 5.330;0.433;228.000
1910.00; 5.330;0.433;229.000
1920.00; 5.330;0.433;230.000
1930.00; 5.330;0.433;232.000
1940.00; 5.325;0.433;233.000
1950.00; 5.335;0.433;234.000
1960.00; 5.335;0.433;235.000
1970.00; 5.335;0.433;236.000
1980.00; 5.340;0.433;237.000
1990.00; 5.340;0.433;239.000
2000.00; 5.325;0.433;240.000
2010.00; 5.345;0.433;241.000
2020.00; 5.345;0.433;242.000
2030.00; 5.345;0.433;243.000
2040.00; 5.335;0.433;244.000
2050.00; 5.340;0.433;246.000
2060.00; 5.330;0.433;247.000
2070.00; 5.345;0.433;248.000
2080.00; 5.355;0.433;249.000
2090.00; 5.345;0.433;250.000
2100.00; 5.340;0.433;252.000
2110.00; 5.340;0.433;254.000
2120.00; 5.345;0.433;255.000
2130.00; 5.355;0.433;256.000
2140.00; 5.335;0.433;257.000
2150.00; 5.340;0.433;258.000
2160.00; 5.355;0.433;259.000
2170.00; 5.350;0.433;261.000
2180.00; 5.345;0.433;262.000
2190.00; 5.355;0.433;263.000
2200.00; 5.355;0.433;264.000
2210.00; 5.345;0.433;265.000
2220.00; 5.350;0.433;266.000
2230.00; 5.360;0.433;268.000
2240.00; 5.360;0.433;269.000
2250.00; 5.340;0.433;270.000
2260.00; 5.365;0.433;271.000
2270.00; 5.360;0.433;272.000
2280.00; 5.360;0.433;273.000
2290.00; 5.355;0.433;275.000
2300.00; 5.365;0.433;276.000
2310.00; 5.370;0.433;277.000
2320.00; 5.350;0.433;278.000
2330.00; 5.360;0.433;279.000
2340.00; 5.370;0.433;280.000
2350.00; 5.370;0.433;282.000
2360.00; 5.370;0.433;283.000
2370.00; 5.375;0.433;284.000
2380.00; 5.375;0.433;285.000
2390.00; 5.375;0.433;286.000
2400.00; 5.365;0.433;288.000
2410.00; 5.390;0.433;290.000
2420.00; 5.385;0.433;291.000
2430.00; 5.375;0.433;292.000
2440.00; 5.375;0.433;293.000
2450.00; 5.380;0.433;294.000
2460.00; 5.375;0.433;295.000
2470.00; 5.375;0.433;297.000
2480.00; 5.385;0.433;298.000
2490.00; 5.380;0.433;299.000
2500.00; 5.390;0.433;300.000
2510.00; 5.390;0.433;301.000
2520.00; 5.375;0.433;302.000
2530.00; 5.385;0.433;304.000
2540.00; 5.385;0.433;305.000
2550.00; 5.390;0.433;306.000
2560.00; 5.380;0.433;307.000
2570.00; 5.390;0.433;308.000
2580.00; 5.390;0.433;309.000
2590.00; 5.390;0.433;311.000
2600.00; 5.390;0.433;312.000
2610.00; 5.385;0.433;313.000
2620.00; 5.395;0.433;314.000
2630.00; 5.390;0.433;315.000
2640.00; 5.380;0.433;316.000
2650.00; 5.405;0.433;318.000
2660.00; 5.390;0.433;319.000
2670.00; 5.395;0.433;320.000
2680.00; 5.400;0.433;321.000
2690.00; 5.405;0.433;322.000
2700.00; 5.390;0.433;324.000
2710.00; 5.390;0.433;326.000
2720.00; 5.400;0.433;327.000
2730.00; 5.400;0.433;328.000
2740.00; 5.390;0.433;329.000
2750.00; 5.385;0.433;330.000
2760.00; 5.405;0.433;331.000
2770.00; 5.390;0.433;333.000
2780.00; 5.405;0.433;334.000
2790.00; 5.410;0.433;335.000
2800.00; 5.420;0.433;336.000
2810.00; 5.410;0.433;337.000
2820.00; 5.400;0.433;338.000
2830.00; 5.405;0.433;340.000
2840.00; 5.415;0.433;341.000
2850.00; 5.390;0.433;342.000
2860.00; 5.400;0.433;343.000
2870.00; 5.405;0.433;344.000
2880.00; 5.410;0.433;345.000
2890.00; 5.410;0.433;347.000
2900.00; 5.405;0.433;348.000
2910.00; 5.405;0.433;349.000
2920.00; 5.415;0.433;350.000
2930.00; 5.420;0.433;351.000
2940.00; 5.415;0.433;352.000
2950.00; 5.410;0.433;354.000
2960.00; 5.415;0.433;355.000
2970.00; 5.415;0.433;356.000
2980.00; 5.415;0.433;357.000
2990.00; 5.415;0.433;358.000
3000.00; 5.410;0.433;360.000
3010.00; 5.425;0.433;362.000
3020.00; 5.420;0.433;363.000
3030.00; 5.415;0.433;364.000
3040.00; 5.415;0.433;365.000
3050.00; 5.415;0.433;366.000
3060.00; 5.415;0.433;367.000
3070.00; 5.425;0.433;369.000
3080.00; 5.430;0.433;370.000
3090.00; 5.430;0.433;371.000
3100.00; 5.415;0.433;372.000
3110.00; 5.415;0.433;373.000
3120.00; 5.420;0.433;374.000
3130.00; 5.430;0.433;376.000
3140.00; 5.415;0.433;377.000
3150.00; 5.435;0.433;378.000
3160.00; 5.425;0.433;379.000
3170.00; 5.435;0.433;380.000
3180.00; 5.430;0.433;381.000
3190.00; 5.420;0.433;383.000
3200.00; 5.420;0.433;384.000
3210.00; 5.435;0.433;385.000
3220.00; 5.435;0.433;386.000
3230.00; 5.430;0.433;387.000
3240.00; 5.430;0.433;388.000
3250.00; 5.420;0.433;390.000
3260.00; 5.430;0.433;391.000
3270.00; 5.430;0.433;392.000
3280.00; 5.425;0.433;393.000
3290.00; 5.435;0.433;394.000
3300.00; 5.435;0.433;396.000
3310.00; 5.430;0.433;398.000
3320.00; 5.430;0.433;399.000
3330.00; 5.430;0.433;400.000
3340.00; 5.435;0.433;401.000
3350.00; 5.420;0.433;402.000
3360.00; 5.430;0.433;403.000
3370.00; 5.445;0.433;405.000
3380.00; 5.425;0.433;406.000
3390.00; 5.450;0.433;407.000
3400.00; 5.445;0.433;408.000
3410.00; 5.430;0.433;409.000
3420.00; 5.445;0.433;410.000
3430.00; 5.450;0.433;412.000
3440.00; 5.430;0.433;413.000
3450.00; 5.425;0.433;414.000
3460.00; 5.440;0.433;415.000
3470.00; 5.440;0.433;416.000
3480.00; 5.450;0.433;417.000
3490.00; 5.435;0.433;419.000
3500.00; 5.435;0.433;420.000
3510.00; 5.445;0.433;421.000
3520.00; 5.445;0.433;422.000
3530.00; 5.445;0.433;423.000
3540.00; 5.455;0.433;424.000
3550.00; 5.435;0.433;426.000
3560.00; 5.460;0.433;427.000
3570.00; 5.455;0.433;428.000
3580.00; 5.445;0.433;429.000
3590.00; 5.450;0.433;430.000
3600.00; 5.445;0.433;433.000
3610.00; 5.450;0.433;435.000
3620.00; 5.460;0.433;436.000
3630.00; 5.460;0.433;437.000
3640.00; 5.460;0.433;438.000
3650.00; 5.460;0.433;439.000
3660.00; 5.450;0.433;440.000
3670.00; 5.465;0.433;442.000
3680.00; 5.460;0.433;443.000
3690.00; 5.435;0.433;444.000
3700.00; 5.465;0.433;445.000
3710.00; 5.455;0.433;446.000
3720.00; 5.475;0.433;447.000
3730.00; 5.460;0.433;449.000
3740.00; 5.460;0.433;450.000
3750.00; 5.450;0.433;451.000
3760.00; 5.465;0.433;452.000
3770.00; 5.475;0.433;453.000
3780.00; 5.460;0.433;454.000
3790.00; 5.465;0.433;456.000
3800.00; 5.465;0.433;457.000
3810.00; 5.475;0.433;458.000
3820.00; 5.460;0.433;459.000
3830.00; 5.455;0.433;460.000
3840.00; 5.470;0.433;461.000
3850.00; 5.465;0.433;463.000
3860.00; 5.460;0.433;464.000
3870.00; 5.455;0.433;465.000
3880.00; 5.460;0.433;466.000
3890.00; 5.465;0.433;467.000
3900.00; 5.470;0.433;469.000
3910.00; 5.465;0.433;471.000
3920.00; 5.465;0.433;472.000
3930.00; 5.470;0.433;473.000
3940.00; 5.475;0.433;474.000
3950.00; 5.475;0.433;475.000
3960.00; 5.475;0.433;476.000
3970.00; 5.465;0.433;478.000
3980.00; 5.475;0.433;479.000
3990.00; 5.475;0.433;480.000
4000.00; 5.480;0.433;481.000
4010.00; 5.475;0.433;482.000
4020.00; 5.470;0.433;483.000
4030.00; 5.480;0.433;485.000
4040.00; 5.480;0.433;486.000
4050.00; 5.475;0.433;487.000
4060.00; 5.475;0.433;488.000
4070.00; 5.480;0.433;489.000
4080.00; 5.480;0.433;490.000
4090.00; 5.465;0.433;492.000
4100.00; 5.485;0.433;493.000
4110.00; 5.465;0.433;494.000
4120.00; 5.480;0.433;495.000
4130.00; 5.485;0.433;496.000
4140.00; 5.485;0.433;497.000
4150.00; 5.490;0.433;499.000
4160.00; 5.480;0.433;500.000
4170.00; 5.485;0.433;501.000
4180.00; 5.480;0.433;502.000
4190.00; 5.480;0.433;503.000
4200.00; 5.470;0.433;505.000
4210.00; 5.480;0.433;507.000
4220.00; 5.490;0.433;508.000
4230.00; 5.495;0.433;509.000
4240.00; 5.490;0.433;510.000
4250.00; 5.495;0.433;511.000
4260.00; 5.480;0.433;512.000
4270.00; 5.475;0.433;514.000
4280.00; 5.490;0.433;515.000
4290.00; 5.500;0.433;516.000
4300.00; 5.490;0.433;517.000
4310.00; 5.485;0.433;518.000
4320.00; 5.490;0.433;519.000
4330.00; 5.495;0.433;521.000
4340.00; 5.490;0.433;522.000
4350.00; 5.485;0.433;523.000
4360.00; 5.490;0.433;524.000
4370.00; 5.480;0.433;525.000
4380.00; 5.490;0.433;526.000
4390.00; 5.490;0.433;528.000
4400.00; 5.475;0.433;529.000
4410.00; 5.490;0.433;530.000
4420.00; 5.505;0.433;531.000
4430.00; 5.500;0.433;532.000
4440.00; 5.485;0.433;533.000
4450.00; 5.495;0.433;535.000
4460.00; 5.500;0.433;536.000
4470.00; 5.505;0.433;537.000
4480.00; 5.500;0.433;538.000
4490.00; 5.505;0.433;539.000
4500.00; 5.505;0.433;541.000
4510.00; 5.510;0.433;543.000
4520.00; 5.505;0.433;544.000
4530.00; 5.475;0.433;545.000
4540.00; 5.505;0.433;546.000
4550.00; 5.515;0.433;547.000
4560.00; 5.505;0.433;548.000
4570.00; 5.505;0.433;550.000
4580.00; 5.490;0.433;551.000
4590.00; 5.500;0.433;552.000
4600.00; 5.505;0.433;553.000
4610.00; 5.505;0.433;554.000
4620.00; 5.500;0.433;555.000
4630.00; 5.515;0.433;557.000
4640.00; 5.505;0.433;558.000
4650.00; 5.515;0.433;559.000
4660.00; 5.495;0.433;560.000
4670.00; 5.520;0.433;561.000
4680.00; 5.505;0.433;562.000
4690.00; 5.525;0.433;564.000
4700.00; 5.510;0.433;565.000
4710.00; 5.520;0.433;566.000
4720.00; 5.520;0.433;567.000
4730.00; 5.515;0.433;568.000
4740.00; 5.510;0.433;569.000
4750.00; 5.515;0.433;571.000
4760.00; 5.520;0.433;572.000
4770.00; 5.520;0.433;573.000
4780.00; 5.510;0.433;574.000
4790.00; 5.520;0.433;575.000
4800.00; 5.515;0.433;577.000
4810.00; 5.515;0.433;579.000
4820.00; 5.520;0.433;580.000
4830.00; 5.520;0.433;581.000
4840.00; 5.525;0.433;582.000
4850.00; 5.520;0.433;583.000
4860.00; 5.535;0.433;584.000
4870.00; 5.520;0.433;586.000
4880.00; 5.535;0.433;587.000
4890.00; 5.520;0.433;588.000
4900.00; 5.510;0.433;589.000
4910.00; 5.535;0.433;590.000
4920.00; 5.530;0.433;591.000
4930.00; 5.535;0.433;593.000
4940.00; 5.510;0.433;594.000
4950.00; 5.535;0.433;595.000
4960.00; 5.530;0.433;596.000
4970.00; 5.525;0.433;597.000
4980.00; 5.525;0.433;598.000
4990.00; 5.515;0.433;600.000
5000.00; 5.525;0.433;601.000
5010.00; 5.530;0.433;602.000
5020.00; 5.540;0.433;603.000
5030.00; 5.520;0.433;604.000
5040.00; 5.530;0.433;605.000
5050.00; 5.530;0.433;607.000
5060.00; 5.535;0.433;608.000
5070.00; 5.525;0.433;609.000
5080.00; 5.535;0.433;610.000
5090.00; 5.525;0.433;611.000
5100.00; 5.540;0.433;613.000
5110.00; 5.520;0.433;615.000
5120.00; 5.540;0.433;616.000
5130.00; 5.550;0.433;617.000
5140.00; 5.550;0.433;618.000
5150.00; 5.535;0.433;619.000
5160.00; 5.550;0.433;620.000
5170.00; 5.535;0.433;622.000
5180.00; 5.540;0.433;623.000
5190.00; 5.540;0.433;624.000
5200.00; 5.540;0.433;625.000
5210.00; 5.540;0.433;626.000
5220.00; 5.545;0.433;627.000
5230.00; 5.555;0.433;629.000
5240.00; 5.555;0.433;630.000
5250.00; 5.550;0.433;631.000
5260.00; 5.555;0.433;632.000
5270.00; 5.535;0.433;633.000
5280.00; 5.550;0.433;634.000
5290.00; 5.530;0.433;635.000
5300.00; 5.535;0.433;637.000
5310.00; 5.555;0.433;638.000
5320.00; 5.545;0.433;639.000
5330.00; 5.550;0.433;640.000
5340.00; 5.550;0.433;641.000
5350.00; 5.555;0.433;642.000
5360.00; 5.535;0.433;644.000
5370.00; 5.555;0.433;645.000
5380.00; 5.555;0.433;646.000
5390.00; 5.550;0.433;647.000
5400.00; 5.550;0.433;649.000
5410.00; 5.550;0.433;650.000
5420.00; 5.550;0.433;652.000
5430.00; 5.550;0.433;653.000
5440.00; 5.560;0.433;654.000
5450.00; 5.555;0.433;655.000
5460.00; 5.565;0.433;656.000
5470.00; 5.565;0.433;657.000
5480.00; 5.560;0.433;659.000
5490.00; 5.565;0.433;660.000
5500.00; 5.565;0.433;661.000
5510.00; 5.555;0.433;662.000
5520.00; 5.555;0.433;663.000
5530.00; 5.560;0.433;664.000
5540.00; 5.565;0.433;666.000
5550.00; 5.570;0.433;667.000
5560.00; 5.565;0.433;668.000
5570.00; 5.570;0.433;669.000
5580.00; 5.555;0.433;670.000
5590.00; 5.570;0.433;671.000
5600.00; 5.570;0.433;673.000
5610.00; 5.570;0.433;674.000
5620.00; 5.585;0.433;675.000
5630.00; 5.570;0.433;676.000
5640.00; 5.570;0.433;677.000
5650.00; 5.555;0.433;678.000
5660.00; 5.545;0.433;680.000
5670.00; 5.560;0.433;681.000
5680.00; 5.570;0.433;682.000
5690.00; 5.585;0.433;683.000
5700.00; 5.585;0.433;685.000
5710.00; 5.570;0.433;686.000
5720.00; 5.560;0.433;688.000
5730.00; 5.570;0.433;689.000
5740.00; 5.575;0.433;690.000
5750.00; 5.580;0.433;691.000
5760.00; 5.585;0.433;692.000
5770.00; 5.585;0.433;693.000
5780.00; 5.570;0.433;695.000
5790.00; 5.580;0.433;696.000
5800.00; 5.580;0.433;697.000
5810.00; 5.580;0.433;698.000
5820.00; 5.585;0.433;699.000
5830.00; 5.570;0.433;700.000
5840.00; 5.585;0.433;702.000
5850.00; 5.575;0.433;703.000
5860.00; 5.585;0.433;704.000
5870.00; 5.595;0.433;705.000
5880.00; 5.585;0.433;706.000
5890.00; 5.585;0.433;707.000
5900.00; 5.595;0.433;709.000
5910.00; 5.595;0.433;710.000
5920.00; 5.595;0.433;711.000
5930.00; 5.595;0.433;712.000
5940.00; 5.615;0.433;713.000
5950.00; 5.580;0.433;714.000
5960.00; 5.600;0.433;716.000
5970.00; 5.605;0.433;717.000
5980.00; 5.585;0.433;718.000
5990.00; 5.600;0.433;719.000
6000.00; 5.600;0.433;721.000
6010.00; 5.585;0.433;722.000
6020.00; 5.590;0.433;724.000
6030.00; 5.590;0.433;725.000
6040.00; 5.610;0.433;726.000
6050.00; 5.600;0.433;727.000
6060.00; 5.600;0.433;728.000
6070.00; 5.605;0.433;729.000
6080.00; 5.600;0.433;731.000
6090.00; 5.600;0.433;732.000
6100.00; 5.600;0.433;733.000
6110.00; 5.615;0.433;734.000
6120.00; 5.605;0.433;735.000
6130.00; 5.590;0.433;736.000
6140.00; 5.595;0.433;738.000
6150.00; 5.625;0.433;739.000
6160.00; 5.610;0.433;740.000
6170.00; 5.600;0.433;741.000
6180.00; 5.605;0.433;742.000
6190.00; 5.615;0.433;743.000
6200.00; 5.615;0.433;745.000
6210.00; 5.625;0.433;746.000
6220.00; 5.610;0.433;747.000
6230.00; 5.615;0.433;748.000
6240.00; 5.610;0.433;749.000
6250.00; 5.620;0.433;750.000
6260.00; 5.595;0.433;752.000
6270.00; 5.620;0.433;753.000
6280.00; 5.625;0.433;754.000
6290.00; 5.610;0.433;755.000
6300.00; 5.615;0.433;757.000
6310.00; 5.625;0.433;758.000
6320.00; 5.625;0.433;760.000
6330.00; 5.635;0.433;761.000
6340.00; 5.625;0.433;762.000
6350.00; 5.630;0.433;763.000
6360.00; 5.635;0.433;764.000
6370.00; 5.630;0.433;765.000
6380.00; 5.620;0.433;767.000
6390.00; 5.620;0.433;768.000
6400.00; 5.640;0.433;769.000
6410.00; 5.625;0.433;770.000
6420.00; 5.630;0.433;771.000
6430.00; 5.650;0.433;772.000
6440.00; 5.625;0.433;774.000
6450.00; 5.630;0.433;775.000
6460.00; 5.630;0.433;776.000
6470.00; 5.630;0.433;777.000
6480.00; 5.640;0.433;778.000
6490.00; 5.635;0.433;779.000
6500.00; 5.645;0.433;781.000
6510.00; 5.630;0.433;782.000
6520.00; 5.640;0.433;783.000
6530.00; 5.660;0.433;784.000
6540.00; 5.640;0.433;785.000
6550.00; 5.640;0.433;786.000
6560.00; 5.645;0.433;788.000
6570.00; 5.645;0.433;789.000
6580.00; 5.645;0.433;790.000
6590.00; 5.640;0.433;791.000
6600.00; 5.645;0.433;793.000
6610.00; 5.650;0.433;794.000
6620.00; 5.650;0.433;796.000
6630.00; 5.655;0.433;797.000
6640.00; 5.650;0.433;798.000
6650.00; 5.645;0.433;799.000
6660.00; 5.660;0.433;800.000
6670.00; 5.655;0.433;801.000
6680.00; 5.655;0.433;803.000
6690.00; 5.645;0.433;804.000
6700.00; 5.640;0.433;805.000
